wave[A] flux[Arbitrary]
7000 0.00000
7500 0.02325
8000 0.06474
8500 0.10214
9000 0.13608
9500 0.16691
10000 0.19503
10500 0.22092
11000 0.24464
11500 0.26655
12000 0.28691
12500 0.30568
13000 0.32314
13500 0.33942
14000 0.35464
14500 0.36886
15000 0.38218
15500 0.39467
16000 0.40639
16500 0.41742
17000 0.42780
17500 0.43759
18000 0.44684
18500 0.45561
19000 0.46388
19500 0.47164
20000 0.47902
20500 0.48605
21000 0.49277
21500 0.49901
22000 0.50500
22500 0.51074
23000 0.51613
23500 0.52126
24000 0.52622
24500 0.53084
25000 0.53529
25500 0.53956
26000 0.54355
26500 0.54744
27000 0.55107
27500 0.55459
28000 0.55792
28500 0.56110
29000 0.56416
29500 0.56705
30000 0.56986
30500 0.57240
31000 0.57494
31500 0.57741
32000 0.57963
32500 0.58185
33000 0.58399
33500 0.58592
34000 0.58785
34500 0.58973
35000 0.59139
35500 0.59305
36000 0.59471
36500 0.59614
37000 0.59755
37500 0.59897
38000 0.60026
38500 0.60145
39000 0.60264
39500 0.60383
40000 0.60483
40500 0.60581
41000 0.60680
41500 0.60774
42000 0.60854
42500 0.60934
43000 0.61014
43500 0.61088
44000 0.61151
44500 0.61214
45000 0.61277
45500 0.61336
46000 0.61384
46500 0.61432
47000 0.61479
47500 0.61527
48000 0.61561
48500 0.61595
49000 0.61629
49500 0.61663
50000 0.61691
50500 0.61712
51000 0.61733
51500 0.61755
52000 0.61776
52500 0.61788
53000 0.61799
53500 0.61809
54000 0.61819
54500 0.61829
55000 0.61830
55500 0.61830
56000 0.61830
56500 0.61830
57000 0.61830
57500 0.61823
58000 0.61814
58500 0.61805
59000 0.61796
59500 0.61787
60000 0.61775
60500 0.61758
61000 0.61741
61500 0.61724
62000 0.61706
62500 0.61689
63000 0.61667
63500 0.61643
64000 0.61618
64500 0.61594
65000 0.61570
65500 0.61546
66000 0.61516
66500 0.61485
67000 0.61455
67500 0.61424
68000 0.61394
68500 0.61363
69000 0.61329
69500 0.61293
70000 0.61256
70500 0.61220
71000 0.61184
71500 0.61148
72000 0.61111
72500 0.61070
73000 0.61028
73500 0.60987
74000 0.60946
74500 0.60905
75000 0.60864
75500 0.60821
76000 0.60776
76500 0.60731
77000 0.60686
77500 0.60640
78000 0.60595
78500 0.60550
79000 0.60503
79500 0.60454
80000 0.60405
80500 0.60356
81000 0.60307
81500 0.60258
82000 0.60209
82500 0.60160
83000 0.60109
83500 0.60057
84000 0.60005
84500 0.59953
85000 0.59901
85500 0.59849
86000 0.59796
86500 0.59744
87000 0.59690
87500 0.59635
88000 0.59580
88500 0.59526
89000 0.59471
89500 0.59416
90000 0.59361
90500 0.59307
91000 0.59250
91500 0.59193
92000 0.59136
92500 0.59080
93000 0.59023
93500 0.58966
94000 0.58909
94500 0.58852
95000 0.58795
95500 0.58736
96000 0.58678
96500 0.58619
97000 0.58560
97500 0.58502
98000 0.58443
98500 0.58385
99000 0.58326
99500 0.58267
100000 0.58207
100500 0.58147
101000 0.58087
101500 0.58027
102000 0.57967
102500 0.57907
103000 0.57847
103500 0.57787
104000 0.57727
104500 0.57666
105000 0.57605
105500 0.57544
106000 0.57483
106500 0.57422
107000 0.57361
107500 0.57300
108000 0.57239
108500 0.57178
109000 0.57116
109500 0.57055
110000 0.56993
110500 0.56931
111000 0.56869
111500 0.56808
112000 0.56746
112500 0.56684
113000 0.56622
113500 0.56561
114000 0.56499
114500 0.56437
115000 0.56374
115500 0.56312
116000 0.56250
116500 0.56188
117000 0.56125
117500 0.56063
118000 0.56001
118500 0.55939
119000 0.55877
119500 0.55814
120000 0.55752
120500 0.55689
121000 0.55627
121500 0.55564
122000 0.55502
122500 0.55440
123000 0.55377
123500 0.55315
124000 0.55252
124500 0.55190
125000 0.55127
125500 0.55065
126000 0.55003
126500 0.54940
127000 0.54878
127500 0.54815
128000 0.54753
128500 0.54690
129000 0.54628
129500 0.54566
130000 0.54503
130500 0.54441
131000 0.54378
131500 0.54316
132000 0.54254
132500 0.54192
133000 0.54129
133500 0.54067
134000 0.54005
134500 0.53943
135000 0.53881
135500 0.53818
136000 0.53756
136500 0.53694
137000 0.53632
137500 0.53570
138000 0.53508
138500 0.53446
139000 0.53384
139500 0.53323
140000 0.53261
140500 0.53199
141000 0.53137
141500 0.53075
142000 0.53013
142500 0.52952
143000 0.52890
143500 0.52828
144000 0.52767
144500 0.52705
145000 0.52644
145500 0.52583
146000 0.52522
146500 0.52460
147000 0.52399
147500 0.52338
148000 0.52276
148500 0.52215
149000 0.52154
149500 0.52093
150000 0.52031
150500 0.51970
151000 0.51910
151500 0.51849
152000 0.51789
152500 0.51728
153000 0.51667
153500 0.51607
154000 0.51546
154500 0.51486
155000 0.51425
155500 0.51364
156000 0.51304
156500 0.51243
157000 0.51183
157500 0.51122
158000 0.51063
158500 0.51003
159000 0.50943
159500 0.50883
160000 0.50824
160500 0.50764
161000 0.50704
161500 0.50644
162000 0.50584
162500 0.50525
163000 0.50465
163500 0.50405
164000 0.50345
164500 0.50286
165000 0.50226
165500 0.50167
166000 0.50109
166500 0.50050
167000 0.49991
167500 0.49932
168000 0.49873
168500 0.49814
169000 0.49755
169500 0.49697
170000 0.49638
170500 0.49579
171000 0.49520
171500 0.49461
172000 0.49402
172500 0.49343
173000 0.49286
173500 0.49228
174000 0.49170
174500 0.49112
175000 0.49054
175500 0.48996
176000 0.48939
176500 0.48881
177000 0.48823
177500 0.48765
178000 0.48707
178500 0.48650
179000 0.48592
179500 0.48534
180000 0.48476
180500 0.48418
181000 0.48361
181500 0.48304
182000 0.48248
182500 0.48191
183000 0.48134
183500 0.48077
184000 0.48021
184500 0.47964
185000 0.47907
185500 0.47851
186000 0.47794
186500 0.47737
187000 0.47680
187500 0.47624
188000 0.47567
188500 0.47510
189000 0.47453
189500 0.47397
190000 0.47342
190500 0.47286
191000 0.47231
191500 0.47175
192000 0.47120
192500 0.47064
193000 0.47009
193500 0.46953
194000 0.46897
194500 0.46842
195000 0.46786
195500 0.46731
196000 0.46675
196500 0.46620
197000 0.46564
197500 0.46509
198000 0.46453
198500 0.46398
199000 0.46344
199500 0.46290
200000 0.46235
200500 0.46181
201000 0.46127
201500 0.46072
202000 0.46018
202500 0.45964
203000 0.45909
203500 0.45855
204000 0.45801
204500 0.45746
205000 0.45692
205500 0.45638
206000 0.45583
206500 0.45529
207000 0.45475
207500 0.45421
208000 0.45368
208500 0.45315
209000 0.45262
209500 0.45209
210000 0.45155
210500 0.45102
211000 0.45049
211500 0.44996
212000 0.44943
212500 0.44890
213000 0.44837
213500 0.44784
214000 0.44731
214500 0.44678
215000 0.44625
215500 0.44572
216000 0.44519
216500 0.44466
217000 0.44413
217500 0.44361
218000 0.44309
218500 0.44257
219000 0.44205
219500 0.44154
220000 0.44102
220500 0.44050
221000 0.43998
221500 0.43947
222000 0.43895
222500 0.43843
223000 0.43791
223500 0.43740
224000 0.43688
224500 0.43636
225000 0.43585
225500 0.43533
226000 0.43481
226500 0.43429
227000 0.43378
227500 0.43326
228000 0.43276
228500 0.43225
229000 0.43175
229500 0.43125
230000 0.43074
230500 0.43024
231000 0.42973
231500 0.42923
232000 0.42873
232500 0.42822
233000 0.42772
233500 0.42722
234000 0.42671
234500 0.42621
235000 0.42570
235500 0.42520
236000 0.42470
236500 0.42419
237000 0.42369
237500 0.42318
238000 0.42268
238500 0.42219
239000 0.42170
239500 0.42121
240000 0.42072
240500 0.42023
241000 0.41974
241500 0.41925
242000 0.41876
242500 0.41827
243000 0.41778
243500 0.41729
244000 0.41680
244500 0.41631
245000 0.41582
245500 0.41533
246000 0.41484
246500 0.41435
247000 0.41386
247500 0.41337
248000 0.41288
248500 0.41239
249000 0.41190
249500 0.41141
250000 0.41093
250500 0.41046
251000 0.40998
251500 0.40950
252000 0.40903
252500 0.40855
253000 0.40808
253500 0.40760
254000 0.40712
254500 0.40665
255000 0.40617
255500 0.40570
256000 0.40522
256500 0.40474
257000 0.40427
257500 0.40379
258000 0.40331
258500 0.40284
259000 0.40236
259500 0.40189
260000 0.40141
260500 0.40093
261000 0.40046
261500 0.39999
262000 0.39953
262500 0.39907
263000 0.39861
263500 0.39814
264000 0.39768
264500 0.39722
265000 0.39676
265500 0.39630
266000 0.39583
266500 0.39537
267000 0.39491
267500 0.39445
268000 0.39399
268500 0.39352
269000 0.39306
269500 0.39260
270000 0.39214
270500 0.39168
271000 0.39121
271500 0.39075
272000 0.39029
272500 0.38983
273000 0.38936
273500 0.38891
274000 0.38846
274500 0.38801
275000 0.38756
275500 0.38711
276000 0.38667
276500 0.38622
277000 0.38577
277500 0.38532
278000 0.38487
278500 0.38443
279000 0.38398
279500 0.38353
280000 0.38308
280500 0.38263
281000 0.38219
281500 0.38174
282000 0.38129
282500 0.38084
283000 0.38039
283500 0.37995
284000 0.37950
284500 0.37905
285000 0.37860
285500 0.37815
286000 0.37771
286500 0.37726
287000 0.37683
287500 0.37640
288000 0.37596
288500 0.37553
289000 0.37509
289500 0.37466
290000 0.37423
290500 0.37379
291000 0.37336
291500 0.37292
292000 0.37249
292500 0.37206
293000 0.37162
293500 0.37119
294000 0.37075
294500 0.37032
295000 0.36989
295500 0.36945
296000 0.36902
296500 0.36859
297000 0.36815
297500 0.36772
298000 0.36728
298500 0.36685
299000 0.36642
299500 0.36598
300000 0.36555
300500 0.36513
301000 0.36471
301500 0.36429
302000 0.36388
302500 0.36346
303000 0.36304
303500 0.36262
304000 0.36220
304500 0.36178
305000 0.36136
305500 0.36094
306000 0.36052
306500 0.36010
307000 0.35968
307500 0.35926
308000 0.35884
308500 0.35842
309000 0.35800
309500 0.35758
310000 0.35716
310500 0.35674
311000 0.35632
311500 0.35590
312000 0.35548
312500 0.35506
313000 0.35464
313500 0.35422
314000 0.35380
314500 0.35340
315000 0.35299
315500 0.35258
316000 0.35218
316500 0.35177
317000 0.35137
317500 0.35096
318000 0.35056
318500 0.35015
319000 0.34974
319500 0.34934
320000 0.34893
320500 0.34853
321000 0.34812
321500 0.34771
322000 0.34731
322500 0.34690
323000 0.34650
323500 0.34609
324000 0.34569
324500 0.34528
325000 0.34487
325500 0.34447
326000 0.34406
326500 0.34366
327000 0.34325
327500 0.34285
328000 0.34244
328500 0.34203
329000 0.34164
329500 0.34124
330000 0.34085
330500 0.34046
331000 0.34007
331500 0.33968
332000 0.33928
332500 0.33889
333000 0.33850
333500 0.33811
334000 0.33772
334500 0.33733
335000 0.33693
335500 0.33654
336000 0.33615
336500 0.33576
337000 0.33537
337500 0.33497
338000 0.33458
338500 0.33419
339000 0.33380
339500 0.33341
340000 0.33301
340500 0.33262
341000 0.33223
341500 0.33184
342000 0.33145
342500 0.33105
343000 0.33066
343500 0.33027
344000 0.32988
344500 0.32950
345000 0.32912
345500 0.32874
346000 0.32836
346500 0.32798
347000 0.32760
347500 0.32723
348000 0.32685
348500 0.32647
349000 0.32609
349500 0.32571
350000 0.32534
350500 0.32496
351000 0.32458
351500 0.32420
352000 0.32382
352500 0.32344
353000 0.32307
353500 0.32269
354000 0.32231
354500 0.32193
355000 0.32155
355500 0.32118
356000 0.32080
356500 0.32042
357000 0.32004
357500 0.31966
358000 0.31928
358500 0.31891
359000 0.31853
359500 0.31815
360000 0.31777
360500 0.31740
361000 0.31703
361500 0.31667
362000 0.31630
362500 0.31594
363000 0.31557
363500 0.31521
364000 0.31484
364500 0.31448
365000 0.31411
365500 0.31375
366000 0.31339
366500 0.31302
367000 0.31266
367500 0.31229
368000 0.31193
368500 0.31156
369000 0.31120
369500 0.31083
370000 0.31047
370500 0.31010
371000 0.30974
371500 0.30938
372000 0.30901
372500 0.30865
373000 0.30828
373500 0.30792
374000 0.30755
374500 0.30719
375000 0.30682
375500 0.30646
376000 0.30609
376500 0.30573
377000 0.30536
377500 0.30500
378000 0.30465
378500 0.30430
379000 0.30395
379500 0.30360
380000 0.30325
380500 0.30290
381000 0.30254
381500 0.30219
382000 0.30184
382500 0.30149
383000 0.30114
383500 0.30079
384000 0.30044
384500 0.30009
385000 0.29973
385500 0.29938
386000 0.29903
386500 0.29868
387000 0.29833
387500 0.29798
388000 0.29763
388500 0.29728
389000 0.29692
389500 0.29657
390000 0.29622
390500 0.29587
391000 0.29552
391500 0.29517
392000 0.29482
392500 0.29447
393000 0.29412
393500 0.29376
394000 0.29341
394500 0.29306
395000 0.29271
395500 0.29237
396000 0.29203
396500 0.29169
397000 0.29135
397500 0.29101
398000 0.29068
398500 0.29034
399000 0.29000
399500 0.28966
400000 0.28932
400500 0.28899
401000 0.28865
401500 0.28831
402000 0.28797
402500 0.28763
403000 0.28730
403500 0.28696
404000 0.28662
404500 0.28628
405000 0.28594
405500 0.28561
406000 0.28527
406500 0.28493
407000 0.28459
407500 0.28425
408000 0.28392
408500 0.28358
409000 0.28324
409500 0.28290
410000 0.28256
410500 0.28223
411000 0.28189
411500 0.28155
412000 0.28121
412500 0.28087
413000 0.28054
413500 0.28020
414000 0.27986
414500 0.27954
415000 0.27921
415500 0.27889
416000 0.27856
416500 0.27824
417000 0.27791
417500 0.27759
418000 0.27726
418500 0.27694
419000 0.27661
419500 0.27629
420000 0.27596
420500 0.27564
421000 0.27531
421500 0.27499
422000 0.27466
422500 0.27434
423000 0.27401
423500 0.27369
424000 0.27336
424500 0.27304
425000 0.27271
425500 0.27239
426000 0.27206
426500 0.27174
427000 0.27141
427500 0.27109
428000 0.27076
428500 0.27044
429000 0.27011
429500 0.26979
430000 0.26946
430500 0.26914
431000 0.26881
431500 0.26849
432000 0.26816
432500 0.26784
433000 0.26751
433500 0.26719
434000 0.26688
434500 0.26656
435000 0.26625
435500 0.26594
436000 0.26563
436500 0.26531
437000 0.26500
437500 0.26469
438000 0.26438
438500 0.26406
439000 0.26375
439500 0.26344
440000 0.26313
440500 0.26282
441000 0.26250
441500 0.26219
442000 0.26188
442500 0.26157
443000 0.26125
443500 0.26094
444000 0.26063
444500 0.26032
445000 0.26000
445500 0.25969
446000 0.25938
446500 0.25907
447000 0.25875
447500 0.25844
448000 0.25813
448500 0.25782
449000 0.25750
449500 0.25719
450000 0.25688
450500 0.25657
451000 0.25625
451500 0.25594
452000 0.25563
452500 0.25532
453000 0.25500
453500 0.25469
454000 0.25439
454500 0.25409
455000 0.25379
455500 0.25349
456000 0.25319
456500 0.25289
457000 0.25259
457500 0.25229
458000 0.25199
458500 0.25169
459000 0.25139
459500 0.25109
460000 0.25079
460500 0.25049
461000 0.25019
461500 0.24989
462000 0.24959
462500 0.24929
463000 0.24899
463500 0.24869
464000 0.24839
464500 0.24809
465000 0.24779
465500 0.24748
466000 0.24718
466500 0.24688
467000 0.24658
467500 0.24628
468000 0.24598
468500 0.24568
469000 0.24538
469500 0.24508
470000 0.24478
470500 0.24448
471000 0.24418
471500 0.24388
472000 0.24358
472500 0.24328
473000 0.24298
473500 0.24268
474000 0.24238
474500 0.24208
475000 0.24178
475500 0.24149
476000 0.24121
476500 0.24092
477000 0.24063
477500 0.24034
478000 0.24005
478500 0.23977
479000 0.23948
479500 0.23919
480000 0.23890
480500 0.23861
481000 0.23833
481500 0.23804
482000 0.23775
482500 0.23746
483000 0.23717
483500 0.23689
484000 0.23660
484500 0.23631
485000 0.23602
485500 0.23574
486000 0.23545
486500 0.23516
487000 0.23487
487500 0.23458
488000 0.23430
488500 0.23401
489000 0.23372
489500 0.23343
490000 0.23314
490500 0.23286
491000 0.23257
491500 0.23228
492000 0.23199
492500 0.23170
493000 0.23142
493500 0.23113
494000 0.23084
494500 0.23055
495000 0.23027
495500 0.22998
496000 0.22969
496500 0.22940
497000 0.22911
497500 0.22883
498000 0.22855
498500 0.22827
499000 0.22800
499500 0.22772
500000 0.22745
500500 0.22717
501000 0.22689
501500 0.22662
502000 0.22634
502500 0.22606
503000 0.22579
503500 0.22551
504000 0.22524
504500 0.22496
505000 0.22468
505500 0.22441
506000 0.22413
506500 0.22386
507000 0.22358
507500 0.22330
508000 0.22303
508500 0.22275
509000 0.22248
509500 0.22220
510000 0.22192
510500 0.22165
511000 0.22137
511500 0.22110
512000 0.22082
512500 0.22054
513000 0.22027
513500 0.21999
514000 0.21972
514500 0.21944
515000 0.21916
515500 0.21889
516000 0.21861
516500 0.21834
517000 0.21806
517500 0.21778
518000 0.21751
518500 0.21723
519000 0.21696
519500 0.21668
520000 0.21640
520500 0.21613
521000 0.21585
521500 0.21559
522000 0.21532
522500 0.21506
523000 0.21479
523500 0.21453
524000 0.21426
524500 0.21400
525000 0.21374
525500 0.21347
526000 0.21321
526500 0.21294
527000 0.21268
527500 0.21241
528000 0.21215
528500 0.21188
529000 0.21162
529500 0.21136
530000 0.21109
530500 0.21083
531000 0.21056
531500 0.21030
532000 0.21003
532500 0.20977
533000 0.20950
533500 0.20924
534000 0.20897
534500 0.20871
535000 0.20845
535500 0.20818
536000 0.20792
536500 0.20765
537000 0.20739
537500 0.20712
538000 0.20686
538500 0.20659
539000 0.20633
539500 0.20607
540000 0.20580
540500 0.20554
541000 0.20527
541500 0.20501
542000 0.20474
542500 0.20448
543000 0.20421
543500 0.20395
544000 0.20368
544500 0.20342
545000 0.20316
545500 0.20289
546000 0.20264
546500 0.20238
547000 0.20213
547500 0.20188
548000 0.20162
548500 0.20137
549000 0.20112
549500 0.20086
550000 0.20061
550500 0.20036
551000 0.20010
551500 0.19985
552000 0.19960
552500 0.19934
553000 0.19909
553500 0.19884
554000 0.19859
554500 0.19833
555000 0.19808
555500 0.19783
556000 0.19757
556500 0.19732
557000 0.19707
557500 0.19681
558000 0.19656
558500 0.19631
559000 0.19605
559500 0.19580
560000 0.19555
560500 0.19529
561000 0.19504
561500 0.19479
562000 0.19453
562500 0.19428
563000 0.19403
563500 0.19377
564000 0.19352
564500 0.19327
565000 0.19301
565500 0.19276
566000 0.19251
566500 0.19225
567000 0.19200
567500 0.19175
568000 0.19149
568500 0.19124
569000 0.19099
569500 0.19073
570000 0.19048
570500 0.19023
571000 0.18997
571500 0.18973
572000 0.18948
572500 0.18924
573000 0.18900
573500 0.18876
574000 0.18852
574500 0.18827
575000 0.18803
575500 0.18779
576000 0.18755
576500 0.18730
577000 0.18706
577500 0.18682
578000 0.18658
578500 0.18633
579000 0.18609
579500 0.18585
580000 0.18561
580500 0.18537
581000 0.18512
581500 0.18488
582000 0.18464
582500 0.18440
583000 0.18415
583500 0.18391
584000 0.18367
584500 0.18343
585000 0.18319
585500 0.18294
586000 0.18270
586500 0.18246
587000 0.18222
587500 0.18197
588000 0.18173
588500 0.18149
589000 0.18125
589500 0.18100
590000 0.18076
590500 0.18052
591000 0.18028
591500 0.18004
592000 0.17979
592500 0.17955
593000 0.17931
593500 0.17907
594000 0.17882
594500 0.17858
595000 0.17834
595500 0.17810
596000 0.17785
596500 0.17761
597000 0.17737
597500 0.17713
598000 0.17689
598500 0.17665
599000 0.17642
599500 0.17619
600000 0.17596
600500 0.17572
601000 0.17549
601500 0.17526
602000 0.17503
602500 0.17480
603000 0.17457
603500 0.17433
604000 0.17410
604500 0.17387
605000 0.17364
605500 0.17341
606000 0.17318
606500 0.17294
607000 0.17271
607500 0.17248
608000 0.17225
608500 0.17202
609000 0.17179
609500 0.17155
610000 0.17132
610500 0.17109
611000 0.17086
611500 0.17063
612000 0.17040
612500 0.17016
613000 0.16993
613500 0.16970
614000 0.16947
614500 0.16924
615000 0.16901
615500 0.16877
616000 0.16854
616500 0.16831
617000 0.16808
617500 0.16785
618000 0.16762
618500 0.16738
619000 0.16715
619500 0.16692
620000 0.16669
620500 0.16646
621000 0.16623
621500 0.16599
622000 0.16576
622500 0.16553
623000 0.16530
623500 0.16507
624000 0.16484
624500 0.16460
625000 0.16437
625500 0.16414
626000 0.16391
626500 0.16368
627000 0.16346
627500 0.16324
628000 0.16302
628500 0.16279
629000 0.16257
629500 0.16235
630000 0.16213
630500 0.16191
631000 0.16169
631500 0.16147
632000 0.16125
632500 0.16102
633000 0.16080
633500 0.16058
634000 0.16036
634500 0.16014
635000 0.15992
635500 0.15970
636000 0.15947
636500 0.15925
